# Phonon frequencies in cm-1
    1          32.542          32.542          38.338          38.338          42.892          42.892          47.641          47.641          57.257          57.257          59.207          59.207          59.972          59.972          66.062          66.062          71.234          71.234          78.140          78.140          82.346          82.346          85.571          85.571          90.439          90.439          91.348          91.348          91.920          91.920          98.229          98.229         106.985         106.985         108.915         108.915         121.579         121.579         132.115         132.115         138.492         138.492         146.798         146.798         162.769         162.769         172.288         172.288
    2          32.511          32.569          38.302          38.368          42.701          43.071          47.605          47.675          57.110          57.388          59.019          59.327          60.009          60.010          66.029          66.103          71.213          71.260          78.087          78.176          82.191          82.499          85.561          85.585          90.330          90.463          91.345          91.371          91.788          92.124          98.188          98.276         106.866         107.091         108.741         109.090         121.392         121.779         132.058         132.172         138.465         138.521         146.792         146.803         162.727         162.812         172.247         172.328
    3          32.476          32.592          38.260          38.393          42.501          43.240          47.566          47.705          56.955          57.485          58.820          59.350          60.081          60.144          66.006          66.153          71.197          71.291          78.016          78.194          82.033          82.646          85.557          85.601          90.162          90.406          91.313          91.382          91.826          92.356          98.153          98.327         106.737         107.180         108.575         109.262         121.220         121.991         131.999         132.226         138.442         138.552         146.787         146.807         162.683         162.854         172.203         172.366
    4          32.437          32.610          38.213          38.411          42.291          43.396          47.524          47.732          56.797          57.516          58.663          59.306          60.166          60.341          65.991          66.212          71.185          71.328          77.929          78.193          81.873          82.788          85.561          85.615          89.965          90.290          91.184          91.443          92.002          92.602          98.124          98.383         106.600         107.244         108.426         109.429         121.064         122.215         131.939         132.279         138.421         138.586         146.781         146.811         162.639         162.895         172.159         172.402
    5          32.393          32.624          38.161          38.424          42.074          43.539          47.480          47.756          56.637          57.439          58.596          59.235          60.254          60.559          65.986          66.279          71.178          71.370          77.826          78.175          81.714          82.923          85.574          85.623          89.760          90.138          91.046          91.515          92.232          92.855          98.101          98.443         106.456         107.269         108.308         109.590         120.924         122.449         131.878         132.330         138.403         138.623         146.774         146.815         162.595         162.936         172.112         172.437
    6          32.345          32.633          38.104          38.429          41.848          43.669          47.435          47.775          56.479          57.251          58.626          59.155          60.342          60.780          65.991          66.355          71.174          71.420          77.708          78.139          81.556          83.052          85.595          85.622          89.558          89.962          90.917          91.592          92.485          93.113          98.085          98.507         106.304         107.241         108.236         109.741         120.801         122.693         131.817         132.379         138.388         138.661         146.768         146.819         162.550         162.976         172.064         172.470
    7          32.293          32.638          38.043          38.428          41.616          43.783          47.388          47.790          56.324          56.988          58.719          59.075          60.427          60.995          66.006          66.439          71.174          71.475          77.575          78.085          81.400          83.175          85.607          85.623          89.366          89.774          90.800          91.671          92.751          93.371          98.077          98.575         106.146         107.155         108.217         109.883         120.698         122.945         131.754         132.425         138.377         138.702         146.761         146.822         162.504         163.016         172.015         172.501
    8          32.236          32.638          37.977          38.420          41.377          43.883          47.339          47.801          56.171          56.682          58.841          59.000          60.508          61.199          66.031          66.531          71.177          71.538          77.429          78.014          81.246          83.291          85.573          85.656          89.191          89.580          90.693          91.749          93.024          93.629          98.078          98.646         105.982         107.021         108.242         110.013         120.613         123.206         131.692         132.469         138.369         138.744         146.753         146.824         162.458         163.055         171.963         172.531
    9          32.175          32.634          37.907          38.405          41.132          43.965          47.289          47.807          56.022          56.349          58.932          58.977          60.586          61.388          66.067          66.630          71.184          71.607          77.271          77.927          81.096          83.403          85.517          85.690          89.037          89.388          90.596          91.827          93.300          93.883          98.088          98.720         105.812         106.855         108.295         110.131         120.549         123.473         131.629         132.510         138.365         138.789         146.745         146.827         162.412         163.094         171.910         172.559
   10          32.110          32.625          37.833          38.383          40.882          44.031          47.238          47.808          55.877          56.000          58.873          59.113          60.661          61.562          66.114          66.737          71.193          71.684          77.101          77.826          80.950          83.511          85.436          85.722          88.906          89.202          90.509          91.903          93.579          94.132          98.108          98.798         105.635         106.672         108.365         110.237         120.506         123.748         131.565         132.549         138.364         138.835         146.737         146.828         162.365         163.133         171.856         172.585
   11          32.041          32.611          37.755          38.354          40.628          44.079          47.187          47.804          55.638          55.737          58.824          59.245          60.735          61.718          66.172          66.850          71.204          71.768          76.922          77.711          80.808          83.616          85.327          85.747          88.801          89.025          90.431          91.978          93.858          94.373          98.140          98.878         105.453         106.478         108.443         110.329         120.483         124.027         131.502         132.584         138.367         138.883         146.729         146.830         162.317         163.170         171.800         172.610
   12          31.966          32.592          37.673          38.318          40.370          44.109          47.134          47.795          55.267          55.602          58.788          59.366          60.809          61.856          66.242          66.969          71.218          71.860          76.733          77.583          80.669          83.720          85.191          85.760          88.720          88.862          90.364          92.050          94.137          94.605          98.184          98.960         105.266         106.280         108.526         110.408         120.482         124.312         131.439         132.616         138.374         138.933         146.721         146.831         162.269         163.208         171.742         172.633
   13          31.887          32.569          37.588          38.274          40.108          44.120          47.081          47.780          54.887          55.472          58.765          59.472          60.888          61.975          66.321          67.094          71.235          71.959          76.538          77.445          80.535          83.823          85.029          85.757          88.664          88.712          90.308          92.121          94.415          94.826          98.242          99.045         105.073         106.080         108.612         110.473         120.502         124.602         131.375         132.645         138.384         138.984         146.712         146.831         162.220         163.245         171.683         172.654
   14          31.804          32.540          37.499          38.222          39.844          44.112          47.028          47.760          54.501          55.348          58.755          59.558          60.972          62.074          66.412          67.224          71.253          72.066          76.337          77.298          80.405          83.926          84.842          85.735          88.578          88.628          90.267          92.190          94.692          95.032          98.315          99.131         104.875         105.882         108.700         110.526         120.543         124.896         131.312         132.670         138.399         139.037         146.703         146.831         162.171         163.281         171.623         172.673
   15          31.715          32.506          37.406          38.163          39.578          44.085          46.975          47.736          54.109          55.229          58.760          59.621          61.066          62.155          66.511          67.357          71.273          72.179          76.131          77.142          80.279          84.029          84.634          85.690          88.459          88.610          90.241          92.257          94.967          95.223          98.405          99.219         104.672         105.686         108.788         110.565         120.604         125.193         131.249         132.692         138.418         139.091         146.694         146.831         162.121         163.317         171.560         172.691
   16          31.621          32.466          37.310          38.097          39.311          44.040          46.922          47.705          53.711          55.116          58.778          59.659          61.169          62.217          66.619          67.494          71.295          72.299          75.923          76.981          80.157          84.134          84.408          85.624          88.353          88.606          90.233          92.321          95.239          95.395          98.511          99.307         104.466         105.495         108.876         110.592         120.685         125.493         131.187         132.710         138.441         139.147         146.684         146.830         162.071         163.353         171.497         172.707
   17          31.523          32.421          37.209          38.023          39.044          43.975          46.868          47.670          53.310          55.008          58.810          59.672          61.281          62.262          66.733          67.635          71.318          72.424          75.715          76.815          80.039          84.168          84.239          85.537          88.256          88.613          90.244          92.384          95.509          95.549          98.633          99.396         104.255         105.309         108.965         110.608         120.785         125.796         131.124         132.724         138.468         139.204         146.674         146.829         162.020         163.388         171.432         172.721
   18          31.418          32.370          37.103          37.941          38.777          43.892          46.815          47.630          52.904          54.905          58.856          59.660          61.401          62.291          66.854          67.777          71.343          72.553          75.508          76.646          79.924          83.915          84.346          85.431          88.165          88.628          90.275          92.445          95.684          95.776          98.772          99.484         104.043         105.131         109.054         110.613         120.903         126.100         131.063         132.735         138.499         139.262         146.665         146.828         161.968         163.423         171.365         172.734
   19          31.308          32.314          36.991          37.852          38.513          43.792          46.763          47.584          52.494          54.806          58.916          59.626          61.527          62.304          66.978          67.921          71.368          72.685          75.306          76.475          79.812          83.653          84.450          85.313          88.076          88.648          90.325          92.504          95.799          96.039          98.926          99.571         103.828         104.962         109.142         110.608         121.038         126.407         131.002         132.742         138.535         139.321         146.654         146.826         161.916         163.457         171.298         172.745
   20          31.192          32.251          36.873          37.755          38.254          43.675          46.711          47.534          52.082          54.712          58.988          59.570          61.657          62.303          67.105          68.066          71.395          72.815          75.113          76.304          79.704          83.384          84.550          85.188          87.987          88.672          90.394          92.561          95.896          96.298          99.092          99.655         103.613         104.803         109.231         110.595         121.188         126.715         130.941         132.745         138.574         139.382         146.644         146.823         161.864         163.491         171.228         172.755
   21          31.070          32.182          36.745          37.651          38.001          43.543          46.659          47.478          51.667          54.620          59.073          59.495          61.788          62.291          67.233          68.212          71.423          72.939          74.934          76.134          79.598          83.109          84.632          85.074          87.896          88.698          90.480          92.615          95.974          96.553          99.268          99.736         103.399         104.656         109.320         110.575         121.352         127.023         130.882         132.744         138.617         139.443         146.634         146.821         161.811         163.525         171.158         172.763
   22          30.942          32.106          36.606          37.539          37.757          43.395          46.608          47.418          51.249          54.531          59.168          59.403          61.918          62.268          67.361          68.359          71.451          73.048          74.778          75.965          79.496          82.830          84.656          85.014          87.802          88.724          90.582          92.668          96.036          96.803          99.451          99.812         103.189         104.522         109.410         110.548         121.530         127.333         130.823         132.739         138.665         139.506         146.623         146.818         161.757         163.558         171.086         172.769
   23          30.807          32.024          36.453          37.420          37.526          43.235          46.558          47.354          50.830          54.443          59.274          59.294          62.046          62.236          67.488          68.505          71.480          73.131          74.658          75.800          79.396          82.549          84.581          85.049          87.704          88.749          90.696          92.718          96.083          97.048          99.639          99.879         102.985         104.403         109.500         110.515         121.719         127.642         130.765         132.731         138.716         139.570         146.613         146.814         161.703         163.590         171.013         172.773
   24          30.664          31.934          36.283          37.293          37.311          43.062          46.509          47.285          50.410          54.355          59.171          59.389          62.171          62.197          67.612          68.651          71.510          73.171          74.590          75.640          79.299          82.266          84.450          85.139          87.602          88.773          90.821          92.766          96.116          97.286          99.827          99.936         102.792         104.301         109.591         110.478         121.920         127.951         130.708         132.720         138.771         139.634         146.602         146.810         161.649         163.623         170.938         172.776
   25          30.515          31.837          36.095          37.113          37.159          42.880          46.460          47.211          49.989          54.266          59.033          59.510          62.153          62.290          67.732          68.796          71.540          73.158          74.585          75.484          79.205          81.982          84.300          85.249          87.498          88.795          90.954          92.812          96.136          97.519          99.977         100.013         102.612         104.216         109.683         110.437         122.130         128.259         130.652         132.706         138.830         139.700         146.591         146.806         161.594         163.654         170.863         172.778
